jMRUI Data Textfile

Filename: dataset5_nWS.txt

PointsInDataset: 2048      
DatasetsInFile: 1         
SamplingInterval: 2.5E-1    
ZeroOrderPhase: 0E0       
BeginTime: 0E0       
TransmitterFrequency: 1.2322E8  
MagneticField: 2.9E0     
TypeOfNucleus: 0E0       
NameOfPatient: dataset5_nWS
DateOfExperiment: 
Spectrometer: 
AdditionalInfo: dataset5_nWS
SignalNames: dataset5_nWS.txt;


Signal and FFT
sig(real)	sig(imag)	fft(real)	fft(imag)
Signal 1 out of 1 in file
56478.4550000	-16.1804130
56311.9140000	-1.3074926
56166.2950000	1.4752687
56012.3840000	-16.1777480
55847.4130000	-20.4189450
55716.8940000	8.7015109
55553.6100000	13.1047210
55390.1990000	13.8713660
55260.1790000	-6.7062515
55101.8980000	9.3474648
54937.9510000	16.4241950
54793.7590000	12.8916580
54619.9840000	21.4927020
54463.0910000	22.7974370
54272.6310000	-13.4028240
54146.7340000	25.6497510
53993.0130000	12.6269250
53806.7940000	11.0438510
53665.9840000	14.9629400
53497.4440000	1.1756736
53311.9570000	24.7623850
53169.9070000	19.0031130
52983.6260000	-20.0158570
52843.0880000	9.2958501
52682.6880000	14.7555940
52517.0280000	9.2882939
52321.3420000	7.9247538
52183.7850000	-23.7637560
52016.5940000	8.2811039
51833.9340000	14.7844470
51696.7310000	-12.0944700
51483.2160000	-17.6298630
51314.9570000	16.8295310
51177.3870000	9.1890730
51018.5530000	20.7574560
50845.1620000	-4.0189838
50679.4440000	22.7432440
50495.8590000	-18.3309790
50320.4440000	-21.9499120
50165.3570000	5.8080230
49975.1670000	-23.7201790
49823.4630000	-18.6557080
49624.1050000	-16.0292840
49467.5900000	19.3708670
49261.2870000	-24.3335940
49135.1770000	8.4688731
48957.9890000	-24.5187070
48736.6930000	-22.9981600
48604.4570000	-17.8276680
48430.3620000	16.1562710
48231.6300000	-14.6544640
48082.6920000	14.2225140
47873.3650000	19.2333690
47718.7330000	12.6066860
47527.1560000	24.1263650
47336.1720000	-3.3315751
47184.1170000	15.1547730
46999.3660000	-8.7072360
46824.0480000	5.6662115
46628.5590000	4.1419348
46455.9570000	-11.1063140
46313.6800000	22.7810300
46092.4650000	1.3255687
45956.7810000	9.8881336
45741.5720000	20.4646540
45568.5040000	1.3134221
45405.0630000	25.6593900
45244.5060000	9.1492480
45041.2770000	-16.6161830
44889.1650000	14.8018130
44697.8910000	23.6702630
44486.6740000	11.1314170
44340.0510000	20.3956820
44125.9750000	19.6904150
43944.5180000	-16.0636130
43760.2970000	9.3223162
43598.0990000	-1.0532188
43401.5480000	-22.0436900
43233.3320000	14.1548760
43074.5910000	19.9124680
42860.5120000	-17.8891000
42723.5230000	2.4718700
42500.1020000	12.8388000
42319.3630000	16.2608780
42146.5180000	-10.6903620
41990.5790000	3.3322658
41812.8480000	20.2021140
41598.6920000	13.4888410
41414.6080000	2.5585962
41247.6620000	-17.2097630
41090.1810000	-9.8509447
40874.9450000	-10.8358330
40692.9410000	-14.1585350
40560.0740000	-17.5320510
40336.3250000	23.7556490
40192.1000000	12.9924670
40012.9910000	-14.0854720
39804.7500000	4.9109495
39640.7830000	18.1456350
39426.5980000	-8.3667178
39285.5200000	2.4963229
39074.2620000	-24.6020320
38916.0390000	-25.2319300
38714.6930000	-20.4872570
38568.8950000	18.5472890
38380.6390000	1.7746116
38213.4680000	-19.8244960
37992.2180000	4.7494034
37853.4770000	22.5581720
37633.1880000	-15.1357420
37480.5690000	2.2209427
37269.0580000	-5.7021453
37110.9400000	11.8291250
36956.4700000	1.0573290
36770.6930000	-10.2708100
36565.3360000	22.0469010
36417.6450000	-7.8389902
36210.8020000	-17.9606130
36029.9940000	-4.3997648
35870.7860000	18.6405650
35667.6360000	-0.5209142
35522.9200000	-10.6703430
35304.9120000	-5.2846797
35145.8270000	5.1536916
34962.1340000	5.7532405
34792.5110000	8.7539796
34617.1860000	-24.0765400
34439.2870000	13.1941420
34283.4560000	3.7993858
34100.9020000	11.4680670
33915.7430000	-23.2967710
33746.4440000	21.9453050
33575.5070000	-15.6112610
33377.8070000	10.1796480
33197.5320000	25.3658710
33044.7960000	17.2090240
32873.2210000	19.5518020
32691.9070000	-16.1920000
32530.3620000	23.8467120
32362.7430000	-10.9573190
32163.4570000	10.7985760
31996.5050000	-6.1749531
31820.8880000	8.9906308
31686.3490000	-9.1792647
31483.5540000	-15.3667240
31299.7960000	-9.3010740
31164.3160000	-11.7292210
30964.3290000	17.4307170
30805.0160000	23.1680530
30615.7360000	23.8777520
30465.2670000	22.7472670
30316.3760000	3.4120384
30146.6420000	2.9748141
29952.2450000	4.6604976
29817.4870000	-5.7738092
29612.8430000	1.4418927
29471.8760000	16.4254310
29290.6850000	13.0989390
29126.7980000	-19.7858520
28969.1750000	25.6208410
28817.1770000	25.1205060
28640.7680000	2.3797570
28481.4310000	-9.0468559
28306.4070000	-14.8276630
28151.8740000	-21.7326710
27994.6760000	15.7596240
27813.6430000	-7.4640283
27620.5060000	-15.1066330
27470.4690000	19.4995680
27294.9690000	19.9645930
27135.5370000	-7.0341214
26974.6190000	-17.2623050
26830.9170000	19.7529220
26694.7390000	-3.2345760
26516.6990000	10.6719530
26380.6830000	5.1621183
26194.3530000	3.8030840
26020.0080000	-8.8015245
25885.2000000	1.3989301
25700.3600000	-24.9658370
25589.1160000	18.2123720
25408.2770000	7.6145790
25276.1480000	-13.3067850
25088.4680000	14.8269730
24965.6820000	23.0654920
24808.2640000	16.6002940
24621.2240000	-8.9066831
24506.1390000	-15.9903790
24352.6410000	-6.3243991
24166.3300000	-18.7689700
24030.7080000	13.2391600
23852.0350000	6.3199463
23741.9940000	-3.8325068
23550.4710000	21.8772250
23423.0010000	-12.6112520
23244.2140000	-15.4753140
23130.8570000	-9.6425732
22950.9470000	7.8016807
22839.0970000	-20.0289980
22679.6100000	-5.8147593
22525.6830000	-23.2180680
22397.6420000	-8.6086088
22260.4150000	-0.3305672
22089.2720000	18.8091980
21949.8900000	-0.1633333
21795.8100000	-3.7268507
21651.7810000	21.3554040
21529.6010000	-4.2810487
21391.6410000	-0.2309193
21220.2120000	-14.8529050
21071.0780000	-2.6053020
20929.3520000	12.3636250
20788.8560000	-14.4464070
20654.1380000	-0.5167490
20548.7120000	1.6584612
20375.4700000	-22.1058840
20258.8400000	12.8453890
20086.6990000	19.3696760
19979.5190000	-5.8962830
19828.0660000	-19.2216900
19718.8720000	11.7138840
19555.6880000	-14.9024820
19452.3640000	-4.9553105
19303.2660000	-6.7041238
19146.9600000	-25.4127500
19014.3950000	-20.9263210
18870.2720000	2.6033949
18735.5460000	-5.6606250
18611.1360000	10.4514490
18511.3450000	-22.4904620
18375.6450000	3.0117296
18261.1420000	12.5826470
18098.3360000	-9.8881042
17957.0370000	-12.9229470
17871.0700000	-15.4930280
17716.8710000	7.1448667
17594.1030000	-1.6737850
17455.8410000	1.5117247
17340.6240000	-22.2583780
17215.3310000	2.6525811
17087.9160000	-0.3453410
16986.6550000	-24.0701530
16846.7330000	22.3207080
16700.7610000	-12.6608780
16609.5930000	-12.2816990
16486.0690000	-0.5187882
16347.0940000	5.1781647
16232.7980000	2.8836486
16110.8550000	17.1777370
15995.3870000	-13.1370500
15874.3430000	13.0375090
15736.7220000	-24.5852250
15644.2310000	-11.1789550
15539.7110000	24.1680410
15416.8010000	9.1290849
15310.7220000	18.3393200
15183.2630000	10.6543250
15042.3210000	-7.5354491
14952.0430000	22.4605060
14845.2900000	18.2459410
14729.8830000	-9.8574557
14607.2790000	16.9745240
14475.9090000	12.6096520
14386.1950000	-20.2658440
14272.3870000	-13.3977070
14178.8230000	-25.4377980
14065.3120000	-15.3050080
13965.1680000	-5.3006756
13847.0780000	-19.2577080
13747.5270000	-17.7373020
13610.4650000	7.7363993
13493.8150000	-1.0886172
13428.5460000	16.1503010
13307.7190000	-10.9711360
13217.3600000	10.1757410
13110.3040000	23.1692170
12975.2710000	20.7181090
12856.5130000	-3.2369449
12761.8550000	-22.4094200
12683.3370000	-2.2648205
12561.3330000	6.9522894
12495.8140000	-24.5543590
12376.4220000	-0.1175229
12260.6650000	-17.0502830
12188.6100000	21.2824620
12075.5990000	14.4858480
11969.2200000	7.0086689
11869.6010000	-13.3934910
11761.6430000	-23.9129030
11697.4800000	4.6015543
11577.2420000	15.5303340
11512.3370000	11.6428650
11397.7740000	-24.9611020
11299.4660000	21.7866060
11236.0590000	-14.3271530
11116.3540000	-5.2170390
11033.1470000	22.7258490
10918.5150000	1.4688828
10837.4800000	5.4803764
10748.4620000	8.0232159
10679.3690000	2.7834755
10584.0450000	6.8401564
10467.4520000	17.4518950
10419.5880000	7.0970243
10289.3280000	0.3270477
10239.4900000	5.0186847
10122.0040000	-11.9550150
10064.4580000	23.6450540
9983.2477000	22.8765350
9882.0051000	-4.1428521
9776.3110000	-24.0983590
9697.8109000	-24.1255570
9624.2898000	4.0078944
9543.2206000	19.2477730
9462.4068000	-1.9501140
9388.7982000	-24.4888770
9276.4744000	-19.3652270
9234.3180000	0.2253823
9107.0353000	24.5911260
9030.1039000	-20.2286110
8966.7832000	-3.1779125
8910.8262000	4.4023697
8806.8385000	-24.9346960
8749.2324000	6.2506390
8657.4002000	15.8272690
8595.6936000	2.9486593
8487.6307000	-16.9200610
8412.2442000	23.0311470
8358.3283000	-15.4667420
8283.3656000	-4.0289301
8225.8708000	-15.9833400
8128.8437000	-15.8086830
8056.6997000	3.1523601
8001.4788000	-4.2108888
7926.0753000	3.4268355
7852.7505000	-12.4776300
7761.5425000	-5.8387325
7681.3096000	4.7596337
7644.9905000	5.3550254
7556.1856000	-2.2810314
7479.9705000	2.3117237
7400.0988000	9.7488109
7349.9758000	7.2597485
7307.9799000	23.8423650
7221.9150000	13.3678020
7155.3007000	7.5505414
7092.7084000	-12.4267360
7034.3046000	-13.6229080
6973.3772000	-5.1283609
6867.9462000	-2.4140024
6802.8096000	-21.3949070
6765.9748000	22.2032400
6710.0449000	-8.3139973
6634.6519000	20.6418650
6593.4054000	24.5320490
6506.7418000	-19.8751570
6432.5073000	25.4946830
6380.4439000	23.6733870
6324.9174000	8.8048020
6240.9833000	12.5794370
6183.9404000	16.9208450
6141.2703000	4.3613253
6088.4604000	-10.4267370
6008.7265000	-11.2351590
5976.1157000	-16.2731230
5898.5005000	20.5693120
5848.4385000	4.3805619
5777.8385000	-18.0011360
5721.6315000	23.2758750
5711.4432000	-9.9323113
5629.5645000	-1.5325078
5586.1053000	-6.1660917
5539.9125000	-8.0847131
5459.0253000	-5.2775504
5410.0967000	4.1062591
5379.4325000	7.6069998
5328.1146000	8.7610725
5251.2281000	8.5768219
5213.3827000	14.5638150
5162.5797000	-7.9803706
5105.6107000	-0.8115061
5058.4821000	-2.5998428
4983.6335000	-13.3044360
4926.8722000	-24.2125610
4916.3373000	24.9606530
4840.4806000	11.2985280
4816.5666000	18.3242910
4736.0775000	22.5750780
4729.9498000	-17.2579650
4647.8360000	3.6237870
4609.4541000	-23.0426630
4579.7839000	20.4489050
4509.2579000	23.8401990
4486.7472000	-23.1878570
4434.8871000	-18.0063210
4402.6793000	1.9543610
4333.8788000	-3.3494657
4314.0823000	-21.2965210
4266.7370000	-10.8373820
4205.4038000	21.7926960
4186.9788000	-2.8654184
4103.5071000	-5.8431095
4064.7048000	-9.2812910
4042.3605000	2.4817888
4008.6211000	-6.8926728
3936.1533000	-23.9526100
3886.7624000	-10.1097980
3861.8701000	-6.7633381
3828.0047000	11.0154110
3811.7883000	-17.8542500
3751.3402000	19.1331160
3693.7892000	-19.6777100
3651.4085000	25.2649390
3630.1784000	5.7096672
3600.7272000	-0.1368915
3568.6882000	23.8003760
3506.8318000	19.7427310
3503.6924000	13.2762930
3431.2621000	-25.2411330
3423.1557000	-10.7929400
3388.3118000	14.8254270
3346.7724000	15.8403230
3310.2371000	-10.3622530
3257.3858000	-6.7445715
3231.9026000	1.9233032
3216.1540000	-16.6886990
3160.0673000	6.1249369
3136.6159000	-9.7276457
3102.1824000	-23.9147980
3031.4026000	2.0576948
3017.2233000	-7.9782085
2978.7417000	17.7034370
2936.6968000	21.8544420
2942.1704000	15.7848940
2898.5530000	19.2682130
2886.3232000	19.6121020
2839.0893000	-22.0509100
2824.7560000	-6.0170711
2759.2558000	-25.2360290
2731.6902000	16.0656080
2703.7808000	-23.2621680
2691.7373000	23.8454280
2623.9548000	-15.6447820
2606.8832000	-14.6114500
2583.4867000	12.3520270
2538.9368000	-19.9289910
2525.8579000	7.0847557
2509.8536000	-25.4311870
2463.0021000	7.5343221
2428.7499000	-23.9481230
2431.6993000	-12.2831410
2406.1241000	-13.6725900
2387.9235000	2.2968363
2343.3682000	-22.4104060
2291.1233000	22.1815210
2282.8738000	-7.2575168
2282.7683000	21.3690180
2255.8923000	7.6980086
2227.3306000	2.6152736
2190.0182000	8.9139795
2139.1010000	-0.2046837
2156.2754000	20.7070180
2129.1910000	-15.1679720
2091.6936000	22.9284680
2067.1159000	4.6011119
2039.2196000	12.5600090
2024.8158000	-10.4722320
1995.7130000	-17.9735360
1946.8045000	-15.8969570
1945.1224000	3.0268264
1939.0416000	-3.0442312
1880.9676000	-22.5093070
1863.9497000	-17.4125140
1849.9093000	-15.1835870
1829.8310000	17.7213360
1813.2432000	-0.6910478
1779.3212000	20.9370460
1787.7854000	-19.5958050
1741.9346000	-8.8722416
1750.8712000	21.3370660
1686.5827000	-8.0207738
1683.1340000	20.9975830
1656.1007000	-9.8037825
1671.7615000	7.6206284
1628.1129000	19.8357030
1593.0339000	-16.8497080
1567.3001000	10.8247920
1557.6674000	-24.9097260
1575.5733000	17.4140840
1554.9939000	-23.7258790
1502.2741000	13.5787020
1477.4835000	-5.7339916
1470.9536000	0.0533414
1485.8182000	-1.4364608
1433.7975000	-16.0653620
1403.1462000	16.7510730
1423.4719000	-5.8826961
1366.9736000	2.2922646
1381.9537000	21.8773150
1373.0918000	22.7226790
1316.9048000	-1.6649467
1341.9677000	-5.9989909
1295.9204000	21.8719110
1282.5594000	-21.8569550
1288.4197000	-0.5575914
1235.6423000	22.7603700
1234.1710000	1.2223602
1243.4987000	0.6182682
1207.5947000	-24.4747110
1200.3073000	7.2883691
1164.7174000	5.0531323
1189.7510000	16.7117310
1148.3389000	-4.8254451
1156.4096000	-6.9230498
1109.3969000	5.9830072
1132.8027000	23.2436320
1106.6279000	5.7647908
1085.9679000	-10.2547220
1069.9046000	25.4400070
1064.4111000	-8.4684224
1030.7818000	-11.4510080
1026.6569000	-15.8114500
1019.9047000	-5.2130309
1018.1269000	10.0345020
991.7201300	-8.5333134
988.7541800	3.6443825
987.9739900	-11.8005050
979.0257500	-2.7471529
967.3435000	-6.1253636
917.4480400	24.7048840
927.0959200	-23.7890030
884.1192000	-12.8589090
911.6193300	13.3547490
899.6637900	-6.9197029
872.9392100	18.3332600
884.6565500	-0.9859830
833.5291000	-23.3342230
862.5563700	18.8086050
848.8214100	-11.2805780
842.4158800	8.0499558
786.5487000	-11.8016360
779.1682100	-22.9663530
774.7651700	-24.4263810
782.6362200	4.7120763
744.0208400	-0.9263661
767.3957100	25.4512400
755.6303000	-20.4970380
738.7276100	1.6451613
751.1354000	-4.9485601
699.0318400	22.5458370
709.8353200	15.8842190
680.3556500	-19.5154610
703.9591300	11.6870830
687.5546000	-10.7494240
655.3573400	-17.9211820
638.9283000	-12.5907120
635.0666500	23.0654200
657.0597800	-24.4401740
612.7575100	-0.6254780
634.8058200	-2.4270091
621.3199700	-2.2641269
599.3134400	-1.0956791
621.1046700	18.8389650
573.8835800	12.1918360
598.7416400	-15.0625000
555.0655600	-4.7249719
549.7142700	20.8053460
539.7219600	-18.9513030
541.9610800	-16.7604460
549.7999400	-18.6359620
558.7092700	-11.2110670
526.0413700	-10.2884720
550.6493000	10.2133570
544.7755000	-14.0337200
520.0879100	25.6627070
525.3988600	20.5401550
516.5596300	21.0978800
483.9603600	-3.9137780
492.7916300	-3.9209506
459.2795600	1.3731450
493.1847400	-22.9280790
439.9698500	-16.4848290
474.4328900	-18.7540210
435.3024100	3.3626899
448.3770100	-21.2471750
455.7818800	12.5030580
455.8459600	22.1511050
404.6358900	5.7885362
422.0602400	-21.8198630
396.9589300	12.8665510
414.4986500	7.9739302
405.7911200	-13.4950200
396.0537200	-4.5847538
408.8402100	23.7339290
370.9526900	-2.9434090
384.2469800	-5.1614901
372.4902600	-13.0054050
374.4542400	-14.6983850
362.7188900	-3.3998347
343.4583200	12.7515640
368.9181600	-6.9358781
327.9940600	-18.3002390
335.0845300	15.3020530
343.7454000	-12.8869990
343.0775400	0.4252174
316.6198500	-10.1628140
316.6809300	1.3111940
328.3081900	11.1698510
312.4581000	7.9251203
323.0868800	2.0366050
323.5411800	21.9878550
282.9239400	10.6517360
288.6829900	-17.6141570
279.0113300	-9.6475304
293.5197800	24.3638170
306.2920400	3.8987812
275.0110100	23.0170420
253.8094700	-9.9688670
294.1124100	-22.7474050
255.7997600	-6.1986930
274.8359600	2.4278206
253.7744000	-17.6514290
267.8141200	15.1824720
246.3056900	8.3891192
235.7681400	5.1593161
268.4363800	0.6276760
235.8343000	3.7634555
233.1806100	12.4739870
235.1424500	-1.8723327
247.3387000	18.3842460
213.5688400	-12.0802740
212.1723600	21.8735000
245.4492900	0.1917822
221.2890400	9.3519248
197.3452800	11.3940170
203.9804800	-18.1836560
216.1566100	-20.5088460
219.8371000	-13.6612890
221.0087300	-10.1882770
202.2351900	-0.4372227
193.1647600	10.5481220
200.6697900	11.0394800
192.6258400	-18.7769860
174.7182500	-11.8675890
161.8755100	-20.8879520
179.1084800	-7.6288508
169.7366700	-9.5849979
161.5332500	-5.3241813
160.1995000	3.3233514
175.6422200	-8.8300576
157.0645800	21.3975650
180.0888000	-5.8200584
159.1913400	-11.8548160
153.1030500	-6.7954321
164.2466900	8.5936995
173.1163600	24.8840040
139.2586100	-19.7873110
162.1673100	10.2311180
134.2295500	-13.0865300
126.9034100	0.6029093
171.3713400	2.1714801
126.1702400	-3.5888511
163.5026500	-2.1028228
148.7383400	17.1511250
125.1607400	9.2884698
148.6440100	21.6082970
126.5320700	4.7404726
121.1829100	-8.7566360
133.3918300	-10.0621120
152.1633400	-4.3164389
142.6195600	22.7970090
120.8776800	-19.9599270
128.1803300	18.5626540
124.6716500	-15.8622760
108.0254100	5.9754716
128.5068200	22.7209680
112.7190900	-24.2225410
100.8281000	20.9998900
120.8494700	-8.4369802
119.2528000	20.8492400
88.2488210	11.2169250
108.9399400	19.2508840
129.2527100	7.3053467
95.0625550	17.0458210
81.6282170	12.9501020
102.9017800	1.5236201
120.0745500	-7.3747969
80.1550410	8.1816890
70.1971060	-19.1175810
102.8498400	1.5943316
116.5427800	22.1190700
74.4158310	22.5340720
80.4501770	20.9102150
64.5774220	-9.0725322
70.6799580	-7.5229562
85.7711340	-8.5831010
80.9354060	-15.3593810
72.2857960	-19.4197510
75.5344050	-21.6616970
68.9089740	12.9791660
64.5592500	-12.2987150
77.9190760	3.7661419
66.7150100	-1.4324133
70.7772590	-10.8793460
49.1415570	-12.5581880
48.5929080	24.6534430
84.0476620	-15.9147820
88.9084530	22.3267170
69.4958960	-12.7661360
91.4901470	-19.0574910
64.1693610	-3.0947113
65.8757410	20.8135380
89.2908840	-1.7717015
82.1560260	12.8831190
66.1371850	19.2799010
39.8811860	12.8258350
35.0458700	14.3081860
41.7925810	-23.9685360
65.5559570	6.6821680
46.8923940	9.6544149
63.3496200	10.5131860
54.9875530	-14.8754280
31.4772110	6.1949863
75.5159960	-18.5778380
68.4154780	-10.1262780
41.7811270	24.5359650
73.7775810	20.7449460
75.4491480	-17.7566350
23.9645240	-17.6014110
53.0319670	16.2701900
40.6815790	-9.8172406
27.1247650	-20.3090150
53.7629000	-22.5209930
36.0959390	18.3817730
38.2154250	7.4589947
69.2894750	19.3069210
57.8535450	2.8194814
27.5994870	-22.0890280
38.4999820	-25.5894870
32.8357900	-21.7529180
63.1787890	-1.9140587
36.5532860	10.0228920
27.6403820	2.4899606
39.2945020	-3.1877054
35.3545240	-13.2336210
58.1320650	-16.1288010
60.3914800	12.4308350
30.5827530	-7.0771191
33.7840810	-6.1538414
24.6244960	21.7614740
37.7366900	-19.4105010
55.8353840	7.3929058
8.3017346	5.4792119
57.7710470	25.5225290
7.6672359	0.4416650
27.5945100	-24.2903810
10.5640850	-25.2217740
25.5158890	-7.1033161
51.1661440	23.7408440
42.7690460	25.3467690
13.4630280	25.0173610
14.0555810	17.3545510
15.6158940	-5.8816407
41.2309710	10.3066960
31.1872190	19.3637650
17.8636460	-7.9402189
31.3430040	-6.1943362
8.9363098	15.5575240
26.3713280	-19.0881100
-0.6187977	12.2706320
0.7933457	5.1004005
41.3821480	18.8481380
19.1693290	-21.5211030
18.8543930	-3.3557884
3.3898091	-8.2159536
19.1005690	-12.9797700
32.5860780	-2.0479086
40.7247240	-8.2640144
5.1317185	10.7157310
4.8242785	21.8470780
13.2970720	20.8533520
24.5599900	-12.5544000
39.9061520	24.0020450
2.3548431	-1.8204340
25.1282400	-15.3216910
-5.6445602	-22.6670120
25.8244440	-14.6776410
32.3313920	-8.9358783
4.7378076	18.9627390
7.9437912	-19.9093670
19.4044900	-15.9418710
16.5075790	24.0420250
24.4576840	8.1360194
40.7551950	-11.4689620
32.8756460	4.8507999
39.7068400	16.8933380
28.9947010	11.1613940
-6.2579419	17.6421590
29.2010580	7.1230233
-10.2615050	10.1593790
37.3922080	-9.6143213
8.2389511	-9.1335588
-4.4795171	-16.4543730
10.7854400	-24.0629300
-7.1383856	12.1377300
32.9413920	18.2881910
17.0315890	20.3531140
-0.3174112	17.9103370
28.3265780	-18.2020840
13.7720070	-18.9519970
-13.1875120	18.0674080
35.7518810	-10.6401030
32.7014110	-12.2414290
10.5983290	2.8378793
-9.0560783	-4.5915756
-8.0380121	-5.9567980
-12.2737710	-19.2372640
-4.3797859	-17.1747830
6.7436466	4.8758853
9.5305085	-0.1964058
-10.7959710	-25.2614640
8.1067114	-22.7928300
23.6546790	9.8728783
-1.5332342	-18.2327680
3.6295649	-11.5228920
33.7475320	-12.8666670
19.3689210	19.9748760
-10.9034540	22.2401970
0.9896469	-17.5967140
13.6206480	6.4296096
13.4902480	19.0292070
15.2147670	-25.1232780
22.7633340	-21.2769580
-12.6367620	5.6534375
30.8654970	15.7842010
-10.0880710	1.6084601
4.2973161	-18.8224880
4.1787652	-12.1017610
-11.1368340	15.5033920
32.2834650	2.5485747
0.1869873	-21.9909480
-11.3302290	17.6032800
25.7606450	-25.0380340
-15.0664370	-15.2141700
10.6451210	-22.0628910
-14.9726000	24.3576720
20.1709370	5.7437471
10.6518650	-25.0766600
15.2857020	16.1682980
5.4351042	-22.4886060
30.2938960	24.2249600
29.1670790	-14.1072990
27.8654560	-22.0854530
0.0732350	-20.1955880
-8.6195258	-13.2944770
27.6652240	3.3119160
14.7465350	-13.5739300
30.1123320	-8.2293190
-20.2992150	9.7842232
29.7477580	-8.6230132
-14.4478850	-19.1064350
-10.8140640	-13.3639310
13.9217180	19.1898110
-14.7174110	3.1744592
-3.9762236	-23.5126080
0.5521921	-17.3429950
29.3207280	-4.9398258
24.4048720	-1.7621197
20.7960400	1.3706597
8.9253250	9.1987316
-7.7210391	-10.2463500
-18.7681040	1.9231090
-15.0077170	-0.7653203
19.6591920	0.1142956
-16.7468280	-7.7184014
-10.2447870	-12.0242850
-12.8657680	-16.9828450
-10.4530870	18.0513390
-10.1311270	10.2713440
-19.0555890	1.7566289
16.9420930	-11.0725310
-15.4829550	-3.6341425
13.0527070	-12.7451260
-5.4473036	22.1374970
-11.5172980	-12.6895050
27.7130390	-25.6521040
13.0079950	-15.5132160
19.6598960	-17.2697770
21.0729310	-8.5502251
-21.5591240	9.6428732
-14.4126330	-6.2610746
-2.8269410	-7.8837235
21.3366950	16.3177930
1.3576492	8.5348229
-9.7290511	6.0889865
-5.1833779	7.8541101
22.2545660	-6.8497954
-19.0865470	4.4300972
13.1552710	-21.4875730
-15.1178530	-16.6541040
-8.6579522	14.4504690
12.7624110	-19.5086590
15.7655990	-15.0750200
-15.6095420	-8.3789056
18.5293350	-11.0012860
7.0663576	10.9608610
23.4227150	-3.6580178
-6.0271936	13.0789260
-18.4879910	4.6462940
-3.4654074	-4.0097424
15.1581580	-15.5160660
1.7466721	10.0574720
20.9345010	2.9105722
-8.5664943	14.5325770
16.4437990	-19.1259080
26.3137560	24.9285220
-23.9833480	-20.4914380
-7.0195488	6.4303658
-15.6531180	-12.7373930
-5.5909115	25.1079510
3.1827085	9.0201110
-16.3612000	17.6586800
12.8132300	-16.6824300
-17.2335090	-13.9584150
-17.1096820	-13.6921180
22.2891570	23.7326850
6.3988083	-23.0035960
-20.4722560	-1.7088651
-13.2777670	20.0937090
-15.8858820	19.1741690
14.3663610	18.1704040
20.8976160	23.1106390
-4.7488591	-21.1532910
-19.1381330	-24.8951740
7.5140219	-9.9221402
-9.5295922	24.1848680
8.4129139	17.0589080
20.5105620	8.2739331
3.2664667	21.8714390
16.6117280	-5.4583677
-18.5714850	-1.5024621
17.0009290	0.6561304
14.0608090	16.8991920
-19.8042870	-16.9323630
-2.3113852	10.2700720
-0.5608357	20.0151490
-8.4141745	-18.6102380
11.5227960	20.9598300
24.9744400	15.0274000
18.7207450	-6.5993288
16.9273480	-12.2686700
-5.0012858	-15.9230120
-20.3165760	-22.4736990
9.6091080	23.0898220
16.0297420	-17.5150270
-9.7007441	24.2779570
-10.3267910	0.1850639
15.9989130	-23.7006360
-16.4280390	-19.7277800
-9.6852890	4.1789052
8.3541693	-16.0631620
16.0051280	-14.7345940
20.0468020	-11.8328070
16.8286950	16.7244410
-10.0007290	10.5072650
1.9449161	-11.6327640
-17.7170970	-16.0569770
16.8913900	14.5516070
0.7656405	-16.4615780
-3.7644765	-16.0098760
-3.2617673	18.5468620
-10.6951820	15.5900250
22.8906600	-17.1959090
25.3940660	21.2345650
-10.9851050	-22.1511840
10.2854800	-11.1593810
16.7812710	-12.6507630
23.4105930	0.0198320
5.9019117	-14.1856820
-17.8755430	-18.8217370
-6.8087267	-7.7222830
-4.0857148	10.5591670
-2.6015598	-11.1587020
17.6087380	8.4992554
-0.8058334	24.5902320
-4.3956167	16.9759690
-19.9889090	6.1843175
-24.6901580	-6.0758306
5.6401580	24.2273790
-0.6756348	-1.5308901
-12.5024520	8.4670953
-3.6468206	12.6211550
12.9347780	-7.2650852
2.6659345	12.0046750
-19.1136190	1.7954542
0.8835721	18.1350460
-20.9105380	20.0208350
-3.1311444	-4.2091947
-9.3173674	3.1636737
-2.6660789	-22.7206520
-21.8032210	-7.8789477
-9.3612581	-14.4831500
16.6373710	17.7106860
-16.5588450	-11.5880930
13.6432320	-25.6310910
-24.0362780	-10.7565460
-23.4902470	19.4569950
-0.4540461	5.0052762
17.3007730	11.5149060
0.8061504	6.9466096
9.4008856	3.2507007
10.7171430	-3.8110934
-20.7063900	3.5530442
-9.0949367	20.1777880
-8.9715917	11.3565770
-10.6988610	20.3896370
-15.6054140	-19.8078250
-2.6668621	-18.9392330
-1.3630987	-14.3931560
22.0347650	-17.6938510
7.4452404	-16.6408750
-5.3655169	12.6997080
16.5466270	0.1551183
20.5166330	-15.4552260
20.8565880	11.8839150
17.3060930	-19.0567730
25.6497530	-20.6156130
-24.0442730	12.8599490
2.3656865	15.8341700
18.3047760	25.6004860
18.3991110	-16.7900440
-17.3869060	-3.1480618
-12.4629570	10.4936870
-21.8674030	5.5471318
-9.5829207	-10.0459210
2.2823549	11.0810920
-1.8416186	-15.1853970
16.9166700	22.6767790
3.9057268	22.3524040
13.6670450	4.5971977
-9.0208068	6.7954530
-10.7730590	24.5212310
-4.9245650	-22.1157380
24.2676090	6.9455998
23.1614870	-25.0587390
-8.9052657	9.7481465
24.3463800	7.7488907
-4.5597671	-8.5327427
-7.6345122	-9.1413172
8.7498744	-10.3465650
4.0335335	8.9782018
-17.3064500	9.9947616
-4.4269764	-14.1030610
18.0866080	14.8818340
7.1570693	9.8637878
-0.8241339	17.5132130
6.1976376	21.0778090
19.0398510	6.3545347
-13.5141390	17.4474110
-15.4853060	12.7187880
-6.6886457	-10.5643860
-6.5919270	0.2236152
20.3784050	-24.5106000
17.6619500	14.1784530
6.9801369	-9.0286838
18.7305700	18.7500500
17.9689440	10.9816240
14.2833140	-20.2364020
5.2952894	21.1706060
8.2886761	-15.1952740
12.4517760	2.8082291
-22.8177400	-13.9919260
14.3006290	-23.8233370
-8.8686238	-18.3382910
-25.1829030	-13.3595880
-6.3444232	-23.6452100
4.8815852	17.2921070
-10.0252610	17.3125530
-12.1675980	-25.6652420
6.1318443	20.2602260
19.3787480	4.2781083
-18.5120770	-20.2457690
-5.3522369	2.9597644
-4.0316617	-10.7317380
-23.2315890	-19.8932190
-1.5135817	10.4482830
13.5980840	18.2894360
4.5241551	-3.5149842
-8.2806725	-16.1358020
13.4004630	1.3977236
-10.8304490	1.6166212
-6.1557707	-4.7979509
-25.5698030	-7.9926278
13.1879870	0.5675450
-12.5427530	-22.2259530
17.7494200	-12.0756840
24.4716150	-11.6962210
-20.0469430	17.8844870
-19.4628390	-3.9823961
-15.4461960	-6.2663587
7.4730025	5.3923957
-3.3155080	13.9364860
0.8512480	5.4335608
17.3862570	-15.6372400
-22.8626420	8.9828536
-13.5861010	13.4561460
-17.5685220	-21.7151040
-24.8041720	-9.7301096
21.1900630	-17.6342840
-19.5471750	-19.3964260
-4.5627066	14.4646620
-11.0451950	13.4808300
-6.1995261	3.6874229
-20.0123530	6.5492501
5.5626599	-9.2935837
-7.4867030	9.6319350
-19.8305380	-13.5263700
12.3498030	9.1297313
12.5130380	8.4229552
-25.6193650	13.1693780
6.4410893	3.1966394
-15.3169980	-3.8089529
-4.2690460	20.3872340
-1.9140441	0.3431888
-22.7019540	-19.2309490
20.6096100	6.3505385
-16.5261870	-21.0634180
-24.1902390	-0.2531867
-6.6271292	17.8253640
4.9564376	-17.1955110
-3.0471115	1.2416061
11.8899200	12.3691830
-7.0188883	15.2813410
-12.6715880	-17.5484990
21.8309430	-8.2118398
-24.0053270	21.0706330
10.2676190	-14.7465270
9.0271594	-5.4550337
-3.1250344	-18.3124030
-11.0248730	5.6998129
15.9039100	18.5498960
-0.3536847	-17.5924310
-22.3478610	21.5036040
19.3053570	13.2031680
-12.2075280	11.3426780
9.9837745	-4.6323761
-0.7819525	23.2758580
-12.1322760	-6.8722215
16.7389170	-7.2613774
-9.9553291	25.2943400
1.9403610	20.7171740
8.8956185	21.2040300
6.0503002	-15.3763350
-11.0964680	13.3678660
22.1643590	-0.8784976
17.1759290	-21.8083000
13.7501200	19.0740190
17.2749680	19.6709160
23.9125310	-4.2938483
-20.1823580	-17.7757050
1.1503767	-15.0353980
-24.8617710	-11.4172290
17.2282290	-16.3266890
0.0366734	-11.1117630
-6.0210018	13.0690910
14.6378980	-20.5843380
1.6173293	18.8978100
13.0864060	-5.4826125
2.0024710	16.0362030
-18.8383940	21.0685140
-4.2505165	-13.8719540
9.4723155	8.0074632
-17.5869130	14.1157640
-13.3034720	12.0904640
14.2687220	6.5034892
9.5184065	-15.3351590
-0.4386171	22.6752720
-14.3988740	15.9161070
-12.0994090	-2.2492657
-15.9185760	22.9947640
-2.8051339	-13.3094600
24.7820110	21.1740230
-2.5416252	0.9146668
18.4352330	-23.0093610
-5.3109569	14.1648870
23.7960800	14.7771570
-7.0461322	-3.1017490
1.7505227	-7.8570466
2.6634267	-8.5103548
14.2644140	-14.6229690
19.1792680	-24.5238630
-22.0924520	-18.6545720
-14.6504300	6.0506150
-2.4322310	9.9559638
8.2490883	-7.7423396
7.5804990	12.5942440
16.9437680	22.1569550
17.2900410	-11.5456090
11.9583470	-18.4641040
-23.5738820	-9.4739200
23.1419920	7.5938181
13.8787800	15.3171490
13.0556400	22.0757010
10.7413670	5.3968421
2.6127485	11.0712340
-10.2105780	21.2585940
-11.1409440	5.7343375
0.5349151	24.7327050
-23.8964110	-23.6179010
1.3411465	5.1314508
-1.6410323	25.3012220
25.1847930	23.2972930
9.3489972	-19.2750010
-11.8530460	11.4151260
-20.2262990	-12.4375130
-14.2031820	-1.1839051
-13.7732460	3.1399916
23.6756590	-21.7529990
-16.3337800	8.8267061
8.2644793	-15.5611400
16.1943500	-0.0729057
-0.7010584	23.3465870
-17.9189840	15.0380380
15.1204510	-13.5224370
17.3466760	-7.6580039
8.0353022	17.9125520
4.3934912	-17.3941070
5.5779147	8.9928114
4.5520162	12.4325140
-19.6478070	24.1251560
21.4492090	-2.5956617
10.5947250	1.9230839
-15.4576630	-9.1074425
-1.5010621	-9.1236470
-9.9465815	22.5127430
16.4559250	-19.2922090
12.4618480	4.2435445
-18.7506660	-11.6074920
-0.8610994	-24.8798680
15.8925120	-11.6840380
13.6058120	-16.6495420
-4.0311456	-1.9554499
7.5627127	10.2478100
-12.4730680	22.7127290
-10.1543370	-4.9146089
10.4508420	0.4657828
-10.9703300	-19.6498600
18.9946720	-5.1915438
11.4549490	12.2478210
-18.9473040	-12.1266200
16.7726820	1.5592807
-8.3724609	16.5714760
-21.3588240	18.6956790
-11.2148220	-23.0750610
20.8783240	-6.2440969
-7.2614595	-4.3074554
-17.9518090	-12.2167080
8.1768994	23.8070170
25.2092700	16.9697230
-19.9013930	-0.5090272
5.2029770	17.0308400
22.3019330	14.0373000
-11.4914360	9.2722050
18.0478350	10.8750680
18.7019680	6.9921421
19.3537070	24.1917290
14.3485210	-3.0302897
-12.4540350	16.8225380
-22.5265180	-15.5198460
1.4540764	25.2980210
10.5217740	-23.0466820
-6.6013551	-19.3832860
10.6184670	-18.5633200
0.1063290	-15.9899280
6.0279869	1.8803325
11.8741610	-5.2561730
15.2549600	-8.1584436
8.6957383	-12.0822800
7.7082861	8.8678090
-6.9222259	-2.0464763
8.9708758	-3.2660654
-23.6108450	-5.4955353
1.2039084	14.0982660
-9.8426004	-4.9605398
3.2956304	16.4318710
18.2955260	15.2910810
-16.8133520	25.4883430
22.3865670	-12.1229940
-6.4238037	23.8065210
22.1679800	-10.7010430
20.1825090	-2.2265929
-15.1327300	6.4418032
16.1194290	-3.8523494
-0.6719692	-19.1718830
12.8821310	2.3881458
-22.6007350	-18.9417880
-16.9425500	-4.8977762
-22.8149240	-12.7035490
-16.9618370	21.7845860
0.7918616	7.4210764
-11.8843580	-10.3655580
-17.7485870	-11.4473280
-6.4873699	4.9073763
-19.6083240	-17.4840850
-3.8031008	-22.4677330
-6.1007995	14.8413230
9.2952664	-21.9715590
-12.3135550	6.6407593
12.3538130	14.6614150
19.9649270	15.8081540
12.4890020	-2.3064927
-17.2986610	4.8961004
2.4290918	19.5564500
-0.2287346	-16.9024330
-2.4522228	25.2903200
-7.9310056	10.6069240
-2.1782949	1.9113640
8.7122930	-14.9053220
0.4030251	-13.2172330
-18.4623770	8.0707156
-6.8104486	13.5125080
24.4406140	-18.2424120
-8.6010582	-12.9204600
18.8940710	-23.9933250
-21.2255230	-6.8356402
12.2612490	11.7508500
-24.1873810	-17.3407580
9.4889502	18.4909540
1.1298827	21.7328530
0.6266745	7.6180194
-9.8312359	-7.7713514
-13.6408760	4.9182024
-14.9145000	21.0813130
-4.9941640	-7.0624027
21.7134350	8.1358645
-16.2332560	21.5999830
22.1595360	-17.1854250
-9.5824749	-22.1011180
1.3586601	9.2428866
6.4685308	-12.1805340
-19.6910320	7.1798314
2.7835585	-1.4009199
25.4032170	6.9400680
13.8054920	6.1191084
9.8951868	14.6105870
14.4375600	-8.0000914
-11.9615780	-3.5317818
3.3641005	-5.8932057
8.9051499	17.7762560
-18.3531430	-3.1343189
0.4994825	4.0680667
10.0002270	11.4120090
-1.9984323	-18.1633720
-11.0840210	6.8754021
-23.5219820	-13.2447360
-8.2891132	20.9054080
-13.4657640	15.5585840
-2.1052523	23.9497350
23.1656680	-4.7508632
-10.3934940	-8.1327070
-15.3320710	-5.5705375
21.3387420	-17.2424840
-22.9332690	11.0310370
-8.4248336	-3.9121801
13.9886300	8.4773699
-7.7885697	-9.4585504
-16.4300460	22.0653440
-22.9125250	24.6087400
15.4728870	-1.8958676
-20.2262240	21.8628960
12.0697950	10.3639640
-22.3838390	8.6400062
2.3824497	16.2613250
-19.4834810	0.4887425
22.9516900	-1.6559966
7.3839338	-0.4461609
-11.7415150	16.9406160
-8.6585218	6.8266214
7.0790383	24.9249390
25.6171340	-12.0454130
4.3229727	19.9472390
-18.6408410	-14.1875130
-7.3884901	-11.1301520
-7.1118307	-8.7321685
-16.0201640	-10.5862080
7.2731973	-20.5630730
-23.7782380	10.1942330
5.1174670	23.9647130
17.0065610	-2.3191264
-12.5722000	14.3394040
1.1180008	-18.3988550
25.5541120	4.1279385
13.4399060	-23.2336310
-23.8186750	6.0583928
12.4167520	-11.3068450
-5.4005256	8.2100118
-18.9261150	10.5114850
-22.3147550	-22.3088980
16.2382760	22.2441250
-9.2311725	-6.0901600
-3.7218118	20.2804710
24.2688060	11.7475670
-21.2393840	-14.1429320
-24.1111420	23.5186110
4.1910762	11.7326640
-14.2380130	16.4470320
15.9078950	-2.0966344
15.9826810	-1.6982060
13.0107390	-13.6864540
13.7731730	10.9257730
-6.6546004	-16.5996740
4.6201169	9.9305066
-3.2592559	17.8563170
-4.4457957	15.2035170
-9.9434767	22.0210620
-9.9109115	0.8889389
16.7122280	21.1912820
10.7135560	-8.9749559
21.2334730	1.1826493
3.9539776	21.4360840
7.0455485	-18.3501720
-11.1165360	-3.4685236
4.9376390	9.9808669
-1.7737800	-17.2828370
9.2659995	4.8238727
5.4437029	9.4530924
4.5844459	-20.3631150
4.6063970	-6.6996661
-5.9768211	20.7466220
20.1820020	-9.0416382
-22.3353650	-20.3553850
-16.6179960	12.0233330
4.1737718	-18.5600800
24.3658680	-17.8938300
-13.0872470	25.4566840
25.1201520	7.6675528
10.6268590	-23.0554600
-20.0169040	-16.6661540
-9.6207830	24.3337700
20.2184270	-3.3953425
12.3493290	-4.8349317
-3.0589318	9.8415425
19.5274840	0.7438315
-11.1401040	1.8879267
-20.1340070	22.8096240
15.0433760	11.9735490
-11.8279350	1.6412085
10.7833070	-15.7562540
-9.8007348	0.8870486
-2.1375583	17.0275160
-25.0733260	14.2116020
-7.5385241	-19.1675290
-3.8565287	11.1360670
9.6841567	18.9610660
-19.2609200	20.1193720
19.3372500	21.9061780
-15.1773390	12.6936110
24.9723720	-10.9904970
13.6594330	-9.2662809
-6.6260325	-4.7648343
-2.9584649	0.4333967
21.6339250	-4.5107646
-9.0590815	-15.4896720
-13.4471270	25.4691680
19.4842650	-17.7940900
-22.5495880	-9.0131033
-2.6809693	14.4126330
-15.5329910	-21.9233660
9.6932060	-7.8119606
4.1850146	-5.7297699
-23.2117890	-8.0262297
-19.1283590	-6.0317999
-13.3768780	-1.4739762
23.6467710	8.2892085
9.2493026	14.5340650
22.9083940	7.5729112
7.3180171	6.1084090
18.6300470	9.2826051
-25.0296090	15.8851720
-4.4373899	9.4108994
-20.9771060	16.8366000
18.8264900	18.9432690
19.0773330	-1.1921210
2.4440506	-21.2050560
5.7916225	4.8999030
-21.4288770	-21.0020560
-17.4078190	-22.4132150
-23.9414660	16.1105190
-15.7470940	24.9496540
6.7570075	-16.1674300
24.4370230	-16.6566540
-4.7443652	11.8461810
-7.8953376	21.8186510
-13.2677660	21.6094440
16.5529900	4.4271800
-4.5536408	-18.0665650
-7.5450419	-2.0539481
-12.0946120	16.8018850
0.3715169	-6.4664945
-22.4247870	-8.4228444
-21.1661480	13.2704020
13.1922150	21.8955050
-1.8652593	-21.6055390
11.9238790	-14.6816150
-0.2660298	-1.4498945
19.2766410	-16.7390860
-12.7037330	11.2300420
13.1900210	23.5729580
24.9172370	-7.7396195
5.3619385	4.0856897
4.2155075	-20.0357150
-2.4818960	6.7028734
0.7042766	-25.5540650
-0.0497257	-9.2665280
0.6256948	5.1676631
10.4166910	-5.2306626
-0.2246246	-18.0705190
-11.3636590	10.9688060
-24.2610390	7.7528360
-10.0629740	17.3238420
-12.1188620	12.0587180
-18.0214580	21.1510790
25.6614770	13.8443170
5.3680661	13.4915390
-4.2138084	21.7370760
14.4916920	-21.7789960
14.4865620	11.4191310
17.0390750	-16.7593960
-2.8265530	-5.2353454
6.6966092	11.3854050
-20.0314930	-23.1029350
-4.5049477	-21.6069460
19.4114630	16.7495380
-0.6827503	-11.6557870
-20.9227650	0.8871978
17.7853450	13.8491280
0.7572441	16.8896540
9.3304869	13.8895000
-22.7058590	-21.3598150
0.7792759	-7.5941102
-25.2717230	24.5376970
-13.0388060	9.4548945
9.8672691	10.4675570
21.3307370	19.6939510
5.8637560	22.6679030
22.3562950	-5.0452652
22.3425660	-4.5115058
1.9536228	-17.8446180
-8.6305929	-18.9763500
-18.1222500	-7.6855608
21.0953090	-17.2084630
-14.9116310	16.2008020
11.2353490	7.6796999
12.6786800	-22.6808490
14.2723760	7.4326655
7.6155979	-6.9741690
-21.5501620	23.6218270
8.3281859	-9.3580507
-14.1093960	-12.7353670
6.0057330	23.4826980
8.0405508	20.0642510
19.9982740	1.7535149
16.7110790	10.6416430
-2.2311799	2.1327889
13.3540710	-3.8313332
-7.8322533	-2.1815044
-15.5306820	-15.5084980
-24.7765770	-21.3518230
-15.1743470	-9.9331073
-4.7948749	-24.8175220
5.7334120	-25.6521740
-17.7000290	16.3045500
-23.3421600	9.9392453
22.5272340	-9.4816273
14.1120100	13.1726960
-14.3123330	-23.6783010
-16.9757660	14.2422860
-17.3736210	-5.0463316
7.1611429	4.5438336
6.7525476	2.3187889
14.1673370	-1.5091029
14.8614410	-7.5548594
3.2204189	15.3691630
4.6703768	-21.3310100
0.7364251	-12.7008370
0.6553014	11.9510690
5.3812905	-20.5823920
25.2332820	-17.1376240
-23.4253260	17.2177560
12.1035250	14.3775190
15.7947580	-0.8277737
-8.9618396	-8.0418201
25.0764630	-25.2214980
-2.0155594	22.1856050
-20.3805930	-10.0201120
-7.8264588	5.1010545
2.2472622	10.8318000
-16.0893970	-0.5088081
-1.9869523	0.0080348
8.1774168	-19.9919070
11.7739500	18.8996400
18.0194090	-3.1506759
23.5886040	14.0290040
18.0895930	23.4175120
-19.4908270	18.9869300
12.6396980	-13.8758830
-0.0024717	-23.3298370
-19.0947250	15.7344470
13.9216250	21.4164360
-2.5869519	-14.6031560
3.9287048	-14.8344780
3.5964571	-4.3854696
16.2399170	-18.4514370
-10.6881680	-21.1593120
-23.1787870	16.7312370
4.2563629	24.4304660
-9.8467963	16.9832230
-19.2785410	-3.6150508
-18.1364500	-10.0003790
14.6494130	-14.6016070
-13.1664980	-7.1971541
-9.9956940	11.9837320
14.6158970	10.5810430
-0.5585056	13.8234390
2.7478765	24.4836750
-15.7606480	24.3278790
-6.0410761	8.5954957
4.3256379	-23.3861790
-21.8156850	-4.8754970
18.4245080	-15.4937290
-14.4311440	14.9776670
-16.4609860	3.2226526
12.5713730	-21.0879240
19.2484180	7.7028020
-0.7139420	-15.7811970
6.3271115	-20.1341840
-18.5199140	25.4266230
-0.8302268	-2.6274361
7.1499266	-2.4474556
9.3525889	-19.5768280
22.5190400	-5.1312922
15.3684240	2.5741104
-8.3272594	13.2155300
-0.8434247	25.3674930
0.8238944	-21.5995340
-15.9664310	-4.6439831
-8.5717536	6.4915531
5.5874519	14.1088540
-0.3879298	-20.6109940
-17.6608980	24.2471050
16.8599250	-10.9906840
-20.7554940	-10.8721040
-8.5875464	-20.3570340
-13.8571980	-2.9637428
-9.2726527	-25.0393230
12.0729800	-0.6677642
5.0266945	17.2852300
0.0302541	9.5865827
21.7767730	1.6230925
-11.1267700	7.1074283
24.1468450	11.2607300
-11.5869830	23.6524410
-17.9262480	-0.6206358
-10.4239190	-19.0614790
-18.5994430	0.5313436
11.6690270	18.7348540
-4.6140044	6.4017837
11.3842360	-2.8252780
-9.5200395	-22.7361790
-24.6750990	-0.9071253
9.3310710	-0.0450382
6.1486069	-5.2532559
-3.5000358	6.1704703
9.0436004	14.6095040
12.2402770	15.9981340
20.3139220	-8.4115934
12.8543150	22.0510860
-9.4659221	1.9713931
-7.0001470	-19.4794370
13.5331570	-9.5103745
-12.4086720	-19.0142890
6.9655780	-5.4577994
10.3795440	-10.6275770
13.6867630	-17.6020850
-8.1914637	22.2614430
7.2282178	17.2639760
1.8693904	16.3768250
1.1212935	4.2723315
23.1553010	-7.8672143
18.2623050	11.9207630
-23.2276720	-4.8565311
-4.6072309	9.5134241
16.0099210	-7.3272676
18.9597520	-14.7737760
-6.4633601	23.9549420
10.9537740	21.1754750
8.5867502	-0.5087122
6.0984825	11.4848320
13.0353230	3.5455725
-0.8539275	-9.6165379
-5.2183953	13.8699800
-19.4710070	21.7821290
-1.6892230	-25.1486510
-10.6446990	-7.1593095
20.7033210	4.6885356
-10.7898320	-18.2388600
17.0626330	8.0146930
-8.0216988	-11.8008800
-22.2765190	5.7650267
25.3929330	10.8042270
0.8412230	6.4949010
3.6916794	20.9074570
8.3678560	-10.7273250
7.9041590	6.9016257
-16.7049150	7.4140817
9.5033827	24.2130980
-17.0800240	8.0507630
-1.6046937	24.7392590
7.3033932	13.0803460
14.1704950	6.3786336
-10.9392710	-18.8324870
-14.1465250	7.9249138
-12.5829100	-9.4445381
-18.8286210	-6.7051306
-6.1165624	12.5848230
17.2280160	24.3274980
-12.3166970	-12.2227760
19.8741950	7.7188037
-13.7060320	-22.6642250
-6.1392741	10.1156710
-17.6439860	12.6940610
0.9582984	8.1643324
-6.5334667	-10.8394910
-22.8106230	1.9405462
-25.3389520	17.0297130
-11.4443080	-2.5341749
-17.0900060	16.8569000
-7.0492586	-21.3679970
-13.3997990	14.6800810
20.4658640	-2.5292469
-14.2520170	-8.9353809
-25.2160400	1.5108545
3.2659092	12.3860410
-9.5035044	1.8296664
18.0438330	20.1108400
0.3118256	1.7393932
22.7639890	0.1247176
19.5984260	-23.6869830
3.8256262	-19.4233420
6.9547828	-16.9034090
5.7455879	7.5500977
-18.8060850	-6.8500617
5.7137876	8.0485782
-5.5202224	0.4223703
13.3309260	10.7034620
17.0040240	3.4106975
-18.4713950	-13.9203440
-12.1288420	-6.3622250
13.8123040	-5.9014818
21.8776490	-8.9417612
-17.6460310	-20.2123330
-20.7925670	-22.0736090
23.0417410	-10.3831800
-0.4782787	-13.5599070
14.3008770	8.7983479
24.4208170	-13.9426360
12.9139570	-8.6870340
6.6743619	-22.5972100
4.3703516	-5.5354931
19.6513840	-14.5509130
-6.9293102	-24.6199200
12.8362180	16.7406810
25.4375020	-24.4675920
16.7632930	0.3275085
-13.1312080	7.3953778
-1.0683591	-7.0682916
-23.6800320	-7.9322649
11.7605340	-7.4137155
9.6374587	-21.6588250
-16.4160050	15.9687840
0.7338340	-0.9023762
-14.4442480	10.6534520
24.5622540	15.3228070
3.3594368	-21.0788160
-8.8286923	19.0119850
-9.8208785	-24.4623500
-13.0350980	-15.6384270
-3.5566788	19.9370380
-11.7090850	-21.8602270
4.6199037	21.2148500
8.8944915	19.1537440
-11.6882890	-1.5745026
24.2325750	-6.3203154
-13.9951230	3.3210427
13.9547500	0.1270954
20.4401390	17.1136900
-19.3980090	-1.0252119
-18.0958510	-0.7409666
21.0945990	-23.7416810
-16.3773530	-16.2415540
-16.7669460	-25.3893720
12.2162430	-14.0076400
19.6656120	9.4111797
-21.4347230	-5.6129721
5.5548547	18.2293900
-17.7976700	-14.3761420
-3.4962677	22.2973400
8.2410576	3.3946064
-1.8571879	19.9891690
-0.1554147	25.6373530
-18.4486000	1.1797496
15.8666000	-10.9313520
-10.9442420	-4.4572331
-23.0054050	2.9621993
24.6821870	19.3053250
5.2709849	17.2940170
1.7599946	-20.7871360
-10.3558410	-21.3314780
-11.8857920	16.5438080
16.8313990	-4.2115408
21.4418050	-6.4106979
-6.1381459	-18.7044550
12.7834520	22.5610920
-9.4915639	3.0770217
5.0278145	-6.6477037
-9.7792674	7.1661781
17.4130600	-9.7586425
6.6716656	21.1413920
-17.2609680	17.4777240
20.7353490	-17.4884480
11.0585110	-9.2775797
-21.0376930	13.7839410
15.5249830	6.0608309
21.4737290	-10.9320930
21.7414150	-24.4728100
7.7704695	-5.7486952
5.4235166	17.5344060
0.4467885	-18.1498340
11.0566540	-21.0883180
-11.8326160	18.2770940
-1.8409277	22.3565260
22.7844190	-23.6692280
11.4788580	1.5871230
20.4778460	-16.2135670
-15.2347590	-2.8434603
19.2568030	15.8298860
-23.4628740	8.2910174
20.5189500	-10.0776090
14.0685060	14.7698780
4.4735955	-7.8848437
10.8356850	-22.1498820
-0.5875088	-23.9516660
-23.5656410	-15.5606910
-20.6343730	15.4025540
21.3437220	-2.2862070
6.4613347	14.6306520
-14.1174680	14.0472340
-24.0045040	19.0066870
25.4418490	-16.8404520
-4.0955259	19.6379180
-6.6434889	25.4434760
-9.7283105	4.8404170
-10.5756060	9.5398306
0.2578009	15.1785810
13.4621860	-5.1910695
5.4716864	-4.7636875
-20.8204910	-1.2847338
-24.3595380	23.1943930
4.4320558	-11.3742580
13.4648650	-17.1774990
-12.0649620	-3.9581006
5.9159325	-2.6758193
-10.0460160	17.1323920
-2.5511323	13.4319810
24.6392920	11.8146570
1.9292175	14.6462410
-0.3736938	-24.7139740
-6.2547846	0.8768566
-20.1612280	-6.6221933
0.6886534	18.2627360
25.6185540	3.0822522
-20.9909590	16.4885190
-21.6274030	9.8889513
-5.0971243	-0.9602629
8.5572141	4.7057248
-22.8199490	12.4678480
-16.7240730	16.3225890
6.7284001	22.2566240
13.7290050	2.2181840
-22.5011950	4.8896058
13.2593450	15.3018620
24.1725490	-24.2822420
20.5102180	-13.5234030
6.4541842	-25.3043300
-2.0292755	-3.0780634
-16.5426640	-23.3583980
-16.3832920	-21.9744840
9.2357621	0.0380047
-12.7060850	-3.8980576
-25.3353900	9.4659564
0.9503633	-7.5598049
23.9069930	16.4682460
12.3511470	-4.8823978
25.5765110	10.0588450
-14.0157850	0.1409252
12.1814600	1.4527761
14.0851630	22.7539340
-12.5095000	1.5994670
0.9753033	-4.1715646
-0.7615747	9.9123062
-2.2215665	9.3575266
-5.3299680	6.7930057
10.9769160	2.2027547
24.2837300	-19.7002610
-23.5550290	-25.1065330
-23.9102200	-11.4765980
-25.3486300	5.9905104
9.6020213	0.0077468
21.8965020	-21.7078200
17.6415230	3.3489504
-12.9800780	-2.6089405
20.0702730	1.3425416
5.7539614	12.0271770
-19.1695890	-19.9208080
-12.2616740	19.8399910
-16.4931410	-19.9891060
-10.7337050	5.6819715
-24.6651620	6.5759961
5.3283187	12.3028660
2.8321970	-23.8499390
22.6260440	-9.7994381
-8.8472193	13.7343330
-17.4770780	-13.5903190
12.4641310	3.1343214
-25.0150110	-2.6024922
-4.4322985	16.5901820
-19.4048140	-3.9646680
9.5236186	-9.9102012
-23.1038360	-25.4633410
4.6818293	22.3967910
-9.3142827	1.9843201
5.8638712	-5.0085654
16.7475460	22.6926770
0.2847923	-0.7249578
-16.5525440	-16.5996090
5.3306206	-5.0555310
-23.4833740	15.8836860
-4.7717981	13.6737310
-9.6167800	-20.4344870
-6.4207955	17.3529170
15.3758230	-16.2027770
-0.4872082	3.1219028
19.2117930	-20.3910690
-20.3873980	-19.3479290
17.1354490	-21.9001600
21.6645780	-14.7133700
-17.2939860	18.4786930
-23.7315350	5.4878123
10.7035450	-11.0058040
2.7559204	5.6943917
0.7196231	-12.0746530
18.4429930	2.9456920
8.9912765	-17.7404400
-5.9412884	9.9477806
15.2931750	7.6791535
4.8157476	-17.4626220
-16.2532150	-18.2974530
19.4735220	13.8154480
22.1395480	14.2991180
-12.3371850	10.9761870
18.4751990	-17.8317950
-4.2521880	-22.7602140
-6.7436337	9.6593694
18.7162140	-24.8134040
10.2332330	-2.4772295
-24.3454300	6.5531042
-15.6926750	-3.7558144
21.1524350	19.5843390
4.2478383	-2.7379473
5.3492673	-24.3921340
20.6236850	9.9122139
-9.5192341	-16.8112610
25.3687350	-20.9042660
-12.4671440	24.1063690
5.4228147	13.4577230
-25.2092340	-6.7797751
16.6208010	19.1677610
23.7433240	11.2162980
12.6811090	7.6386831
-18.4785950	2.9646592
13.1907500	3.7483809
20.9642240	-18.7432180
-19.1082750	16.8641940
-2.0451617	-17.8723210
-1.2353332	11.4400790
-1.5330983	-2.0726361
3.1461851	-21.0740890
15.5313710	-14.4570780
10.8494230	25.3709360
22.4824600	9.8888245
14.3468720	-19.6292620
2.1496855	-1.5655555
-6.0606480	0.1914967
-16.4784770	16.3946130
-18.5917650	11.4273240
14.3040910	3.1591994
9.0639278	10.0896260
-19.2352500	-16.7238380
17.8430680	7.5887080
9.2812041	12.7568790
-17.8606510	-9.1577209
8.4076061	-1.5912214
-14.4117680	16.2715080
-8.1333240	-17.0410150
24.0010670	20.7502910
15.4886960	-6.0931249
12.4763310	-7.9815256
-14.4536540	-17.9450200
-18.5480130	19.2626580
12.4568530	25.5493320
0.7373347	-10.0080030
12.2123170	15.4849510
-5.4334582	12.4409540
-17.1553770	10.5408020
-20.7877140	6.4214068
5.5733411	-1.8251566
-17.2373490	-24.6390480
22.9610120	-1.0336533
4.3947372	13.2611500
-9.9573431	-13.3707910
2.0312355	19.9344660
3.3727971	-2.7904219
2.2696697	-4.6844465
-20.5211210	9.6353024
6.3191497	-24.6841600
-22.2933910	1.6225947
-10.6488550	15.9800460
-10.5083820	-14.4746780
-15.0429390	24.1274650
-23.0780570	-8.6516312
0.2931084	-2.0095184
-8.0896252	20.2560490
-11.0313620	21.9578790
-11.8331870	-10.7456440
5.4522810	-14.3179150
23.2293780	-21.6650120
4.6873848	3.4858749
21.9083280	-8.8940593
